; (content of file E:\SAIF User Data\2019\Adrine Correya RS,ISP,CUSAT\190711G\SAIFXR190711G-03(C).raw)
_FILEVERSION = 2
_SAMPLE = C
_+SAMPLE = 
_SITE = "Cochin Uni"
_USER = "Cochin Uni"
_GONIOMETER_CODE = 20
; Goniometer : D8 theta/2theta, stage : Unknown
_SAMPLE_CHANGER_CODE = 0
_ATTACHMENTS_CODE = 0
_GONIOMETER_RADIUS = 217.5
_FIXED_DIVSLIT = 0.15
_FIXED_SAMPLESLIT = 1
_SOLLER_SLITS = 2
_FIXED_DETSLIT = 1
_MONOCHROMATOR = 0
; Incident beam monochromator : None
_THIN_FILM = N
_BETA_FILTER = N
_FIXED_ANTISLIT = 0.15
_ANALYZER_CODE = 0
; Received beam analyzer : None
_DATEMEASURED = "15-Jul-2019 15:59:39"
_WL_UNIT = A
_WL1 = 1.5406
_WL2 = 1.54439
_WL3 = 1.39222
_WLRATIO = 0.5
_ANODE = Cu

; Data for range 1
_DRIVE = COUPLED
_STEPTIME = 59.67
_STEPSIZE = 0.0198849
_STEPMODE = C
_START = 3
_THETA = 1.5
_2THETA = 3
_KHI = 0
_PHI = 0
_X = 0
_Y = 0
_Z = 0
_DETECTOR = 5
; Detector type : Unknown
_DETECTORSLIT = out
_AUX1 = 0
_AUX2 = 0
_AUX3 = 0
_TIMESTARTED = 16
_TEMP_RATE = -1
_TEMP_DELAY = -1
_KV = 40
_MA = 40
_RANGE_WL = 1.5406
_3DPLANE = 0
_V4_COUNTERS_MASK = 4096
_V4_DRIVES_MASK = 0
_V4_ENCODERS_MASK = 0
_2THETACOUNTS = 1
; 2THETA  PSD
   3.0000       2304
   3.0199       2198
   3.0398       2329
   3.0597       2238
   3.0795       2195
   3.0994       2232
   3.1193       2222
   3.1392       2122
   3.1591       2086
   3.1790       2145
   3.1988       2031
   3.2187       2025
   3.2386       1906
   3.2585       1935
   3.2784       1966
   3.2983       1986
   3.3182       1863
   3.3380       1843
   3.3579       1842
   3.3778       1856
   3.3977       1828
   3.4176       1834
   3.4375       1830
   3.4574       1758
   3.4772       1774
   3.4971       1789
   3.5170       1674
   3.5369       1692
   3.5568       1653
   3.5767       1741
   3.5965       1698
   3.6164       1695
   3.6363       1622
   3.6562       1619
   3.6761       1640
   3.6960       1579
   3.7159       1620
   3.7357       1579
   3.7556       1597
   3.7755       1496
   3.7954       1477
   3.8153       1580
   3.8352       1543
   3.8551       1533
   3.8749       1515
   3.8948       1477
   3.9147       1548
   3.9346       1519
   3.9545       1464
   3.9744       1487
   3.9942       1544
   4.0141       1378
   4.0340       1490
   4.0539       1491
   4.0738       1499
   4.0937       1457
   4.1136       1481
   4.1334       1493
   4.1533       1400
   4.1732       1455
   4.1931       1430
   4.2130       1393
   4.2329       1414
   4.2527       1440
   4.2726       1408
   4.2925       1468
   4.3124       1408
   4.3323       1457
   4.3522       1434
   4.3721       1322
   4.3919       1362
   4.4118       1416
   4.4317       1341
   4.4516       1415
   4.4715       1346
   4.4914       1324
   4.5113       1370
   4.5311       1386
   4.5510       1368
   4.5709       1388
   4.5908       1302
   4.6107       1353
   4.6306       1279
   4.6504       1315
   4.6703       1305
   4.6902       1304
   4.7101       1266
   4.7300       1274
   4.7499       1330
   4.7698       1332
   4.7896       1338
   4.8095       1312
   4.8294       1240
   4.8493       1253
   4.8692       1307
   4.8891       1311
   4.9090       1312
   4.9288       1281
   4.9487       1210
   4.9686       1287
   4.9885       1259
   5.0084       1226
   5.0283       1294
   5.0481       1238
   5.0680       1221
   5.0879       1208
   5.1078       1249
   5.1277       1268
   5.1476       1174
   5.1675       1301
   5.1873       1230
   5.2072       1228
   5.2271       1180
   5.2470       1255
   5.2669       1270
   5.2868       1284
   5.3066       1183
   5.3265       1219
   5.3464       1255
   5.3663       1191
   5.3862       1130
   5.4061       1136
   5.4260       1162
   5.4458       1204
   5.4657       1196
   5.4856       1189
   5.5055       1198
   5.5254       1165
   5.5453       1125
   5.5652       1143
   5.5850       1117
   5.6049       1145
   5.6248       1185
   5.6447       1154
   5.6646       1087
   5.6845       1156
   5.7043       1107
   5.7242       1125
   5.7441       1138
   5.7640       1088
   5.7839       1160
   5.8038       1118
   5.8237       1073
   5.8435       1101
   5.8634       1082
   5.8833       1120
   5.9032       1088
   5.9231       1103
   5.9430       1064
   5.9629       1088
   5.9827       1078
   6.0026       1049
   6.0225       1125
   6.0424       1081
   6.0623       1064
   6.0822       1118
   6.1020       1111
   6.1219       1101
   6.1418       1059
   6.1617       1068
   6.1816       1027
   6.2015       1026
   6.2214       1012
   6.2412       1078
   6.2611       1105
   6.2810       1092
   6.3009       1040
   6.3208       1075
   6.3407       1042
   6.3605       1077
   6.3804       1114
   6.4003       1011
   6.4202       1060
   6.4401       1042
   6.4600       1012
   6.4799        990
   6.4997       1001
   6.5196       1025
   6.5395        988
   6.5594        980
   6.5793       1015
   6.5992        996
   6.6191        997
   6.6389       1013
   6.6588        996
   6.6787        953
   6.6986       1005
   6.7185        977
   6.7384        955
   6.7582        959
   6.7781       1007
   6.7980        936
   6.8179        998
   6.8378       1015
   6.8577       1039
   6.8776       1001
   6.8974       1005
   6.9173        975
   6.9372        990
   6.9571        999
   6.9770        997
   6.9969        908
   7.0167        949
   7.0366        924
   7.0565        910
   7.0764        960
   7.0963        915
   7.1162        925
   7.1361        914
   7.1559        967
   7.1758        914
   7.1957        976
   7.2156        950
   7.2355        947
   7.2554        929
   7.2753        970
   7.2951        950
   7.3150       1012
   7.3349        950
   7.3548        988
   7.3747       1008
   7.3946       1007
   7.4144       1059
   7.4343       1069
   7.4542       1034
   7.4741        918
   7.4940       1008
   7.5139       1007
   7.5338        993
   7.5536       1011
   7.5735        927
   7.5934        944
   7.6133        933
   7.6332        959
   7.6531        926
   7.6730        917
   7.6928        938
   7.7127        905
   7.7326        942
   7.7525        863
   7.7724        922
   7.7923        899
   7.8121        889
   7.8320        892
   7.8519        882
   7.8718        867
   7.8917        923
   7.9116        872
   7.9315        885
   7.9513        843
   7.9712        873
   7.9911        876
   8.0110        822
   8.0309        844
   8.0508        905
   8.0706        870
   8.0905        897
   8.1104        840
   8.1303        869
   8.1502        926
   8.1701        942
   8.1900        930
   8.2098        834
   8.2297        819
   8.2496        805
   8.2695        836
   8.2894        865
   8.3093        856
   8.3292        855
   8.3490        846
   8.3689        843
   8.3888        851
   8.4087        845
   8.4286        859
   8.4485        820
   8.4683        813
   8.4882        806
   8.5081        825
   8.5280        792
   8.5479        826
   8.5678        832
   8.5877        832
   8.6075        827
   8.6274        820
   8.6473        848
   8.6672        863
   8.6871        780
   8.7070        833
   8.7269        832
   8.7467        811
   8.7666        801
   8.7865        830
   8.8064        839
   8.8263        771
   8.8462        790
   8.8660        791
   8.8859        821
   8.9058        815
   8.9257        795
   8.9456        829
   8.9655        804
   8.9854        772
   9.0052        806
   9.0251        764
   9.0450        848
   9.0649        824
   9.0848        777
   9.1047        781
   9.1245        774
   9.1444        765
   9.1643        806
   9.1842        779
   9.2041        824
   9.2240        773
   9.2439        827
   9.2637        805
   9.2836        802
   9.3035        808
   9.3234        829
   9.3433        773
   9.3632        760
   9.3831        801
   9.4029        823
   9.4228        787
   9.4427        758
   9.4626        749
   9.4825        740
   9.5024        742
   9.5222        755
   9.5421        769
   9.5620        781
   9.5819        780
   9.6018        788
   9.6217        757
   9.6416        733
   9.6614        732
   9.6813        804
   9.7012        774
   9.7211        735
   9.7410        722
   9.7609        789
   9.7808        772
   9.8006        786
   9.8205        760
   9.8404        784
   9.8603        760
   9.8802        752
   9.9001        740
   9.9199        803
   9.9398        821
   9.9597        711
   9.9796        759
   9.9995        749
  10.0194        770
  10.0393        742
  10.0591        787
  10.0790        718
  10.0989        778
  10.1188        740
  10.1387        791
  10.1586        728
  10.1784        776
  10.1983        768
  10.2182        760
  10.2381        710
  10.2580        777
  10.2779        754
  10.2978        796
  10.3176        770
  10.3375        801
  10.3574        801
  10.3773        778
  10.3972        766
  10.4171        844
  10.4370        803
  10.4568        798
  10.4767        801
  10.4966        779
  10.5165        765
  10.5364        855
  10.5563        947
  10.5761        956
  10.5960       1036
  10.6159        988
  10.6358       1070
  10.6557       1082
  10.6756       1071
  10.6955       1113
  10.7153       1006
  10.7352        978
  10.7551       1004
  10.7750        909
  10.7949        887
  10.8148        915
  10.8347        836
  10.8545        817
  10.8744        808
  10.8943        843
  10.9142        776
  10.9341        774
  10.9540        769
  10.9738        707
  10.9937        755
  11.0136        737
  11.0335        768
  11.0534        766
  11.0733        744
  11.0932        774
  11.1130        749
  11.1329        734
  11.1528        773
  11.1727        760
  11.1926        742
  11.2125        747
  11.2323        739
  11.2522        688
  11.2721        755
  11.2920        752
  11.3119        746
  11.3318        722
  11.3517        802
  11.3715        777
  11.3914        761
  11.4113        767
  11.4312        764
  11.4511        710
  11.4710        751
  11.4909        742
  11.5107        762
  11.5306        759
  11.5505        727
  11.5704        758
  11.5903        779
  11.6102        778
  11.6300        755
  11.6499        688
  11.6698        773
  11.6897        723
  11.7096        732
  11.7295        760
  11.7494        738
  11.7692        754
  11.7891        790
  11.8090        757
  11.8289        709
  11.8488        779
  11.8687        780
  11.8886        720
  11.9084        788
  11.9283        709
  11.9482        797
  11.9681        710
  11.9880        735
  12.0079        745
  12.0277        693
  12.0476        687
  12.0675        692
  12.0874        793
  12.1073        719
  12.1272        717
  12.1471        712
  12.1669        715
  12.1868        767
  12.2067        717
  12.2266        717
  12.2465        723
  12.2664        684
  12.2862        757
  12.3061        710
  12.3260        708
  12.3459        660
  12.3658        719
  12.3857        725
  12.4056        738
  12.4254        711
  12.4453        726
  12.4652        684
  12.4851        745
  12.5050        733
  12.5249        692
  12.5448        719
  12.5646        691
  12.5845        760
  12.6044        704
  12.6243        692
  12.6442        752
  12.6641        691
  12.6839        741
  12.7038        735
  12.7237        703
  12.7436        725
  12.7635        697
  12.7834        726
  12.8033        688
  12.8231        707
  12.8430        687
  12.8629        685
  12.8828        655
  12.9027        658
  12.9226        704
  12.9425        700
  12.9623        692
  12.9822        746
  13.0021        660
  13.0220        683
  13.0419        697
  13.0618        749
  13.0816        750
  13.1015        712
  13.1214        699
  13.1413        768
  13.1612        746
  13.1811        719
  13.2010        733
  13.2208        635
  13.2407        654
  13.2606        707
  13.2805        702
  13.3004        657
  13.3203        641
  13.3401        657
  13.3600        659
  13.3799        699
  13.3998        655
  13.4197        682
  13.4396        650
  13.4595        664
  13.4793        633
  13.4992        645
  13.5191        615
  13.5390        597
  13.5589        679
  13.5788        601
  13.5987        673
  13.6185        634
  13.6384        635
  13.6583        590
  13.6782        639
  13.6981        621
  13.7180        635
  13.7378        594
  13.7577        632
  13.7776        589
  13.7975        643
  13.8174        594
  13.8373        645
  13.8572        615
  13.8770        613
  13.8969        631
  13.9168        649
  13.9367        616
  13.9566        621
  13.9765        631
  13.9963        611
  14.0162        588
  14.0361        594
  14.0560        630
  14.0759        624
  14.0958        530
  14.1157        599
  14.1355        594
  14.1554        587
  14.1753        607
  14.1952        582
  14.2151        543
  14.2350        588
  14.2549        579
  14.2747        571
  14.2946        588
  14.3145        595
  14.3344        605
  14.3543        598
  14.3742        569
  14.3940        627
  14.4139        657
  14.4338        582
  14.4537        658
  14.4736        621
  14.4935        572
  14.5134        577
  14.5332        617
  14.5531        639
  14.5730        676
  14.5929        678
  14.6128        706
  14.6327        711
  14.6526        704
  14.6724        700
  14.6923        710
  14.7122        683
  14.7321        691
  14.7520        675
  14.7719        640
  14.7917        656
  14.8116        616
  14.8315        617
  14.8514        576
  14.8713        554
  14.8912        572
  14.9111        599
  14.9309        579
  14.9508        560
  14.9707        543
  14.9906        531
  15.0105        584
  15.0304        546
  15.0502        524
  15.0701        585
  15.0900        568
  15.1099        590
  15.1298        547
  15.1497        560
  15.1696        588
  15.1894        562
  15.2093        557
  15.2292        565
  15.2491        573
  15.2690        583
  15.2889        556
  15.3088        545
  15.3286        562
  15.3485        577
  15.3684        524
  15.3883        563
  15.4082        548
  15.4281        608
  15.4479        489
  15.4678        553
  15.4877        558
  15.5076        551
  15.5275        550
  15.5474        528
  15.5673        554
  15.5871        538
  15.6070        566
  15.6269        506
  15.6468        540
  15.6667        520
  15.6866        515
  15.7065        532
  15.7263        569
  15.7462        578
  15.7661        538
  15.7860        543
  15.8059        607
  15.8258        581
  15.8456        597
  15.8655        607
  15.8854        637
  15.9053        627
  15.9252        664
  15.9451        709
  15.9650        762
  15.9848        771
  16.0047        906
  16.0246       1010
  16.0445       1069
  16.0644       1143
  16.0843       1037
  16.1041        967
  16.1240        878
  16.1439        753
  16.1638        740
  16.1837        639
  16.2036        669
  16.2235        619
  16.2433        576
  16.2632        579
  16.2831        602
  16.3030        582
  16.3229        519
  16.3428        555
  16.3627        529
  16.3825        516
  16.4024        516
  16.4223        523
  16.4422        542
  16.4621        521
  16.4820        533
  16.5018        507
  16.5217        588
  16.5416        543
  16.5615        493
  16.5814        521
  16.6013        518
  16.6212        503
  16.6410        504
  16.6609        463
  16.6808        518
  16.7007        476
  16.7206        473
  16.7405        449
  16.7604        478
  16.7802        525
  16.8001        492
  16.8200        532
  16.8399        482
  16.8598        477
  16.8797        515
  16.8995        496
  16.9194        495
  16.9393        488
  16.9592        521
  16.9791        459
  16.9990        499
  17.0189        450
  17.0387        503
  17.0586        513
  17.0785        471
  17.0984        459
  17.1183        462
  17.1382        452
  17.1580        483
  17.1779        464
  17.1978        478
  17.2177        492
  17.2376        505
  17.2575        503
  17.2774        488
  17.2972        495
  17.3171        523
  17.3370        456
  17.3569        467
  17.3768        464
  17.3967        478
  17.4166        454
  17.4364        487
  17.4563        504
  17.4762        453
  17.4961        476
  17.5160        449
  17.5359        516
  17.5557        469
  17.5756        490
  17.5955        457
  17.6154        462
  17.6353        484
  17.6552        435
  17.6751        459
  17.6949        496
  17.7148        471
  17.7347        438
  17.7546        440
  17.7745        455
  17.7944        455
  17.8143        475
  17.8341        457
  17.8540        453
  17.8739        450
  17.8938        445
  17.9137        467
  17.9336        485
  17.9534        469
  17.9733        452
  17.9932        445
  18.0131        453
  18.0330        459
  18.0529        458
  18.0728        459
  18.0926        462
  18.1125        449
  18.1324        486
  18.1523        488
  18.1722        503
  18.1921        449
  18.2119        481
  18.2318        474
  18.2517        424
  18.2716        469
  18.2915        482
  18.3114        505
  18.3313        474
  18.3511        449
  18.3710        506
  18.3909        525
  18.4108        471
  18.4307        459
  18.4506        468
  18.4705        495
  18.4903        486
  18.5102        469
  18.5301        513
  18.5500        467
  18.5699        469
  18.5898        496
  18.6096        454
  18.6295        485
  18.6494        464
  18.6693        442
  18.6892        425
  18.7091        446
  18.7290        441
  18.7488        492
  18.7687        433
  18.7886        456
  18.8085        452
  18.8284        458
  18.8483        452
  18.8682        416
  18.8880        460
  18.9079        436
  18.9278        441
  18.9477        431
  18.9676        482
  18.9875        447
  19.0073        449
  19.0272        431
  19.0471        436
  19.0670        411
  19.0869        427
  19.1068        438
  19.1267        469
  19.1465        401
  19.1664        436
  19.1863        480
  19.2062        431
  19.2261        439
  19.2460        462
  19.2658        468
  19.2857        427
  19.3056        430
  19.3255        407
  19.3454        436
  19.3653        417
  19.3852        406
  19.4050        423
  19.4249        483
  19.4448        430
  19.4647        452
  19.4846        481
  19.5045        473
  19.5244        475
  19.5442        460
  19.5641        446
  19.5840        441
  19.6039        437
  19.6238        453
  19.6437        442
  19.6635        428
  19.6834        418
  19.7033        413
  19.7232        414
  19.7431        410
  19.7630        434
  19.7829        438
  19.8027        443
  19.8226        428
  19.8425        436
  19.8624        410
  19.8823        417
  19.9022        443
  19.9220        398
  19.9419        410
