; (content of file E:\SAIF User Data\2019\Adrine Correya RS,ISP,CUSAT\190711G\SAIFXR190711G-04(D).raw)
_FILEVERSION = 2
_SAMPLE = D
_+SAMPLE = 
_SITE = "Cochin Uni"
_USER = "Cochin Uni"
_GONIOMETER_CODE = 20
; Goniometer : D8 theta/2theta, stage : Unknown
_SAMPLE_CHANGER_CODE = 0
_ATTACHMENTS_CODE = 0
_GONIOMETER_RADIUS = 217.5
_FIXED_DIVSLIT = 0.15
_FIXED_SAMPLESLIT = 1
_SOLLER_SLITS = 2
_FIXED_DETSLIT = 1
_MONOCHROMATOR = 0
; Incident beam monochromator : None
_THIN_FILM = N
_BETA_FILTER = N
_FIXED_ANTISLIT = 0.15
_ANALYZER_CODE = 0
; Received beam analyzer : None
_DATEMEASURED = "15-Jul-2019 16:34:10"
_WL_UNIT = A
_WL1 = 1.5406
_WL2 = 1.54439
_WL3 = 1.39222
_WLRATIO = 0.5
_ANODE = Cu

; Data for range 1
_DRIVE = COUPLED
_STEPTIME = 59.67
_STEPSIZE = 0.0198849
_STEPMODE = C
_START = 3
_THETA = 1.5
_2THETA = 3
_KHI = 0
_PHI = 0
_X = 0
_Y = 0
_Z = 0
_DETECTOR = 5
; Detector type : Unknown
_DETECTORSLIT = out
_AUX1 = 0
_AUX2 = 0
_AUX3 = 0
_TIMESTARTED = 11
_TEMP_RATE = -1
_TEMP_DELAY = -1
_KV = 40
_MA = 40
_RANGE_WL = 1.5406
_3DPLANE = 0
_V4_COUNTERS_MASK = 4096
_V4_DRIVES_MASK = 0
_V4_ENCODERS_MASK = 0
_2THETACOUNTS = 1
; 2THETA  PSD
   3.0000       1877
   3.0199       1887
   3.0398       1833
   3.0597       1725
   3.0795       1725
   3.0994       1754
   3.1193       1774
   3.1392       1756
   3.1591       1651
   3.1790       1622
   3.1988       1701
   3.2187       1679
   3.2386       1636
   3.2585       1651
   3.2784       1595
   3.2983       1599
   3.3182       1555
   3.3380       1530
   3.3579       1532
   3.3778       1536
   3.3977       1511
   3.4176       1482
   3.4375       1423
   3.4574       1530
   3.4772       1526
   3.4971       1422
   3.5170       1506
   3.5369       1441
   3.5568       1381
   3.5767       1366
   3.5965       1416
   3.6164       1494
   3.6363       1347
   3.6562       1322
   3.6761       1381
   3.6960       1402
   3.7159       1311
   3.7357       1333
   3.7556       1272
   3.7755       1247
   3.7954       1252
   3.8153       1304
   3.8352       1286
   3.8551       1298
   3.8749       1241
   3.8948       1247
   3.9147       1218
   3.9346       1214
   3.9545       1186
   3.9744       1244
   3.9942       1203
   4.0141       1247
   4.0340       1236
   4.0539       1235
   4.0738       1210
   4.0937       1176
   4.1136       1225
   4.1334       1189
   4.1533       1199
   4.1732       1242
   4.1931       1117
   4.2130       1198
   4.2329       1181
   4.2527       1245
   4.2726       1143
   4.2925       1127
   4.3124       1167
   4.3323       1124
   4.3522       1144
   4.3721       1150
   4.3919       1095
   4.4118       1167
   4.4317       1159
   4.4516       1123
   4.4715       1119
   4.4914       1129
   4.5113       1130
   4.5311       1082
   4.5510       1103
   4.5709       1109
   4.5908       1094
   4.6107       1084
   4.6306       1102
   4.6504       1068
   4.6703       1141
   4.6902       1067
   4.7101       1039
   4.7300       1065
   4.7499       1084
   4.7698       1074
   4.7896       1082
   4.8095       1098
   4.8294       1083
   4.8493       1107
   4.8692       1062
   4.8891       1048
   4.9090       1039
   4.9288       1044
   4.9487       1035
   4.9686       1063
   4.9885       1025
   5.0084       1067
   5.0283       1016
   5.0481       1078
   5.0680       1077
   5.0879        992
   5.1078       1036
   5.1277       1046
   5.1476       1019
   5.1675        971
   5.1873       1031
   5.2072        978
   5.2271        979
   5.2470       1008
   5.2669       1011
   5.2868        924
   5.3066        985
   5.3265        943
   5.3464        986
   5.3663        978
   5.3862        938
   5.4061        905
   5.4260        984
   5.4458       1004
   5.4657        967
   5.4856        943
   5.5055        916
   5.5254        940
   5.5453        946
   5.5652        936
   5.5850        934
   5.6049        900
   5.6248        928
   5.6447        964
   5.6646        933
   5.6845        926
   5.7043        914
   5.7242        922
   5.7441        889
   5.7640        932
   5.7839        935
   5.8038        867
   5.8237        924
   5.8435        939
   5.8634        961
   5.8833        870
   5.9032        973
   5.9231        920
   5.9430        911
   5.9629        912
   5.9827        846
   6.0026        918
   6.0225        882
   6.0424        855
   6.0623        881
   6.0822        816
   6.1020        859
   6.1219        872
   6.1418        872
   6.1617        822
   6.1816        861
   6.2015        906
   6.2214        925
   6.2412        897
   6.2611        848
   6.2810        862
   6.3009        884
   6.3208        823
   6.3407        862
   6.3605        859
   6.3804        839
   6.4003        873
   6.4202        874
   6.4401        793
   6.4600        824
   6.4799        839
   6.4997        868
   6.5196        870
   6.5395        883
   6.5594        806
   6.5793        861
   6.5992        854
   6.6191        817
   6.6389        801
   6.6588        818
   6.6787        885
   6.6986        830
   6.7185        778
   6.7384        830
   6.7582        855
   6.7781        840
   6.7980        858
   6.8179        824
   6.8378        803
   6.8577        813
   6.8776        812
   6.8974        862
   6.9173        818
   6.9372        841
   6.9571        838
   6.9770        800
   6.9969        799
   7.0167        763
   7.0366        801
   7.0565        792
   7.0764        780
   7.0963        790
   7.1162        757
   7.1361        800
   7.1559        806
   7.1758        835
   7.1957        819
   7.2156        804
   7.2355        789
   7.2554        757
   7.2753        756
   7.2951        793
   7.3150        756
   7.3349        810
   7.3548        795
   7.3747        792
   7.3946        777
   7.4144        808
   7.4343        731
   7.4542        756
   7.4741        796
   7.4940        812
   7.5139        785
   7.5338        804
   7.5536        770
   7.5735        796
   7.5934        790
   7.6133        783
   7.6332        755
   7.6531        759
   7.6730        769
   7.6928        736
   7.7127        742
   7.7326        749
   7.7525        795
   7.7724        761
   7.7923        756
   7.8121        757
   7.8320        720
   7.8519        763
   7.8718        748
   7.8917        740
   7.9116        760
   7.9315        706
   7.9513        701
   7.9712        719
   7.9911        760
   8.0110        741
   8.0309        773
   8.0508        749
   8.0706        684
   8.0905        689
   8.1104        730
   8.1303        757
   8.1502        750
   8.1701        746
   8.1900        774
   8.2098        738
   8.2297        761
   8.2496        732
   8.2695        689
   8.2894        717
   8.3093        751
   8.3292        753
   8.3490        728
   8.3689        756
   8.3888        721
   8.4087        739
   8.4286        728
   8.4485        765
   8.4683        749
   8.4882        710
   8.5081        736
   8.5280        689
   8.5479        723
   8.5678        707
   8.5877        715
   8.6075        704
   8.6274        745
   8.6473        698
   8.6672        689
   8.6871        659
   8.7070        703
   8.7269        759
   8.7467        729
   8.7666        662
   8.7865        680
   8.8064        705
   8.8263        754
   8.8462        721
   8.8660        745
   8.8859        693
   8.9058        728
   8.9257        741
   8.9456        644
   8.9655        696
   8.9854        706
   9.0052        664
   9.0251        726
   9.0450        651
   9.0649        684
   9.0848        755
   9.1047        693
   9.1245        750
   9.1444        713
   9.1643        708
   9.1842        711
   9.2041        727
   9.2240        725
   9.2439        695
   9.2637        747
   9.2836        717
   9.3035        693
   9.3234        689
   9.3433        684
   9.3632        658
   9.3831        680
   9.4029        670
   9.4228        713
   9.4427        656
   9.4626        680
   9.4825        675
   9.5024        710
   9.5222        690
   9.5421        690
   9.5620        683
   9.5819        707
   9.6018        712
   9.6217        719
   9.6416        685
   9.6614        668
   9.6813        698
   9.7012        657
   9.7211        619
   9.7410        693
   9.7609        678
   9.7808        636
   9.8006        719
   9.8205        695
   9.8404        666
   9.8603        686
   9.8802        691
   9.9001        697
   9.9199        685
   9.9398        642
   9.9597        690
   9.9796        669
   9.9995        695
  10.0194        691
  10.0393        652
  10.0591        712
  10.0790        628
  10.0989        702
  10.1188        654
  10.1387        698
  10.1586        667
  10.1784        572
  10.1983        663
  10.2182        718
  10.2381        667
  10.2580        635
  10.2779        691
  10.2978        675
  10.3176        656
  10.3375        672
  10.3574        648
  10.3773        687
  10.3972        676
  10.4171        610
  10.4370        694
  10.4568        637
  10.4767        705
  10.4966        669
  10.5165        676
  10.5364        693
  10.5563        689
  10.5761        657
  10.5960        692
  10.6159        659
  10.6358        644
  10.6557        751
  10.6756        737
  10.6955        702
  10.7153        709
  10.7352        689
  10.7551        691
  10.7750        679
  10.7949        645
  10.8148        679
  10.8347        656
  10.8545        682
  10.8744        649
  10.8943        675
  10.9142        645
  10.9341        628
  10.9540        617
  10.9738        664
  10.9937        663
  11.0136        651
  11.0335        655
  11.0534        677
  11.0733        611
  11.0932        646
  11.1130        670
  11.1329        659
  11.1528        664
  11.1727        659
  11.1926        666
  11.2125        653
  11.2323        701
  11.2522        654
  11.2721        655
  11.2920        629
  11.3119        613
  11.3318        650
  11.3517        628
  11.3715        632
  11.3914        635
  11.4113        651
  11.4312        638
  11.4511        628
  11.4710        647
  11.4909        646
  11.5107        639
  11.5306        623
  11.5505        641
  11.5704        638
  11.5903        677
  11.6102        631
  11.6300        633
  11.6499        618
  11.6698        632
  11.6897        653
  11.7096        631
  11.7295        643
  11.7494        643
  11.7692        647
  11.7891        585
  11.8090        582
  11.8289        655
  11.8488        635
  11.8687        632
  11.8886        648
  11.9084        599
  11.9283        617
  11.9482        638
  11.9681        631
  11.9880        679
  12.0079        664
  12.0277        627
  12.0476        639
  12.0675        615
  12.0874        647
  12.1073        619
  12.1272        606
  12.1471        659
  12.1669        639
  12.1868        687
  12.2067        624
  12.2266        687
  12.2465        645
  12.2664        676
  12.2862        614
  12.3061        633
  12.3260        660
  12.3459        633
  12.3658        672
  12.3857        663
  12.4056        679
  12.4254        686
  12.4453        688
  12.4652        682
  12.4851        731
  12.5050        707
  12.5249        737
  12.5448        742
  12.5646        744
  12.5845        727
  12.6044        766
  12.6243        780
  12.6442        761
  12.6641        748
  12.6839        837
  12.7038        838
  12.7237        810
  12.7436        788
  12.7635        751
  12.7834        873
  12.8033        804
  12.8231        796
  12.8430        812
  12.8629        757
  12.8828        771
  12.9027        754
  12.9226        764
  12.9425        718
  12.9623        690
  12.9822        754
  13.0021        732
  13.0220        658
  13.0419        692
  13.0618        657
  13.0816        648
  13.1015        658
  13.1214        632
  13.1413        633
  13.1612        612
  13.1811        597
  13.2010        630
  13.2208        631
  13.2407        577
  13.2606        627
  13.2805        605
  13.3004        617
  13.3203        596
  13.3401        624
  13.3600        563
  13.3799        547
  13.3998        574
  13.4197        550
  13.4396        592
  13.4595        560
  13.4793        557
  13.4992        542
  13.5191        558
  13.5390        546
  13.5589        599
  13.5788        525
  13.5987        563
  13.6185        591
  13.6384        554
  13.6583        543
  13.6782        602
  13.6981        564
  13.7180        512
  13.7378        557
  13.7577        582
  13.7776        543
  13.7975        582
  13.8174        552
  13.8373        551
  13.8572        530
  13.8770        559
  13.8969        537
  13.9168        557
  13.9367        519
  13.9566        529
  13.9765        548
  13.9963        532
  14.0162        529
  14.0361        537
  14.0560        548
  14.0759        513
  14.0958        555
  14.1157        545
  14.1355        531
  14.1554        545
  14.1753        515
  14.1952        535
  14.2151        536
  14.2350        595
  14.2549        573
  14.2747        492
  14.2946        523
  14.3145        523
  14.3344        544
  14.3543        543
  14.3742        553
  14.3940        489
  14.4139        515
  14.4338        525
  14.4537        529
  14.4736        535
  14.4935        565
  14.5134        524
  14.5332        579
  14.5531        578
  14.5730        557
  14.5929        564
  14.6128        574
  14.6327        550
  14.6526        545
  14.6724        616
  14.6923        628
  14.7122        549
  14.7321        599
  14.7520        543
  14.7719        546
  14.7917        522
  14.8116        524
  14.8315        544
  14.8514        537
  14.8713        532
  14.8912        489
  14.9111        517
  14.9309        536
  14.9508        495
  14.9707        510
  14.9906        500
  15.0105        514
  15.0304        526
  15.0502        513
  15.0701        523
  15.0900        511
  15.1099        516
  15.1298        533
  15.1497        502
  15.1696        532
  15.1894        504
  15.2093        527
  15.2292        513
  15.2491        508
  15.2690        480
  15.2889        487
  15.3088        459
  15.3286        487
  15.3485        475
  15.3684        490
  15.3883        503
  15.4082        523
  15.4281        487
  15.4479        481
  15.4678        510
  15.4877        487
  15.5076        515
  15.5275        474
  15.5474        487
  15.5673        496
  15.5871        503
  15.6070        479
  15.6269        520
  15.6468        493
  15.6667        469
  15.6866        491
  15.7065        481
  15.7263        505
  15.7462        538
  15.7661        529
  15.7860        514
  15.8059        549
  15.8258        490
  15.8456        513
  15.8655        505
  15.8854        519
  15.9053        531
  15.9252        515
  15.9451        546
  15.9650        568
  15.9848        592
  16.0047        559
  16.0246        579
  16.0445        552
  16.0644        630
  16.0843        610
  16.1041        571
  16.1240        582
  16.1439        588
  16.1638        594
  16.1837        534
  16.2036        515
  16.2235        536
  16.2433        490
  16.2632        530
  16.2831        498
  16.3030        486
  16.3229        490
  16.3428        506
  16.3627        479
  16.3825        485
  16.4024        472
  16.4223        465
  16.4422        501
  16.4621        463
  16.4820        506
  16.5018        453
  16.5217        473
  16.5416        516
  16.5615        508
  16.5814        454
  16.6013        463
  16.6212        508
  16.6410        501
  16.6609        501
  16.6808        457
  16.7007        496
  16.7206        462
  16.7405        456
  16.7604        470
  16.7802        438
  16.8001        460
  16.8200        419
  16.8399        469
  16.8598        501
  16.8797        425
  16.8995        441
  16.9194        507
  16.9393        440
  16.9592        450
  16.9791        441
  16.9990        451
  17.0189        447
  17.0387        432
  17.0586        442
  17.0785        462
  17.0984        458
  17.1183        400
  17.1382        454
  17.1580        406
  17.1779        433
  17.1978        460
  17.2177        423
  17.2376        440
  17.2575        435
  17.2774        477
  17.2972        401
  17.3171        408
  17.3370        439
  17.3569        414
  17.3768        460
  17.3967        442
  17.4166        479
  17.4364        471
  17.4563        475
  17.4762        427
  17.4961        410
  17.5160        441
  17.5359        448
  17.5557        420
  17.5756        423
  17.5955        463
  17.6154        458
  17.6353        459
  17.6552        474
  17.6751        465
  17.6949        458
  17.7148        425
  17.7347        448
  17.7546        414
  17.7745        428
  17.7944        446
  17.8143        439
  17.8341        410
  17.8540        441
  17.8739        415
  17.8938        410
  17.9137        470
  17.9336        412
  17.9534        428
  17.9733        423
  17.9932        398
  18.0131        418
  18.0330        428
  18.0529        403
  18.0728        434
  18.0926        393
  18.1125        430
  18.1324        418
  18.1523        388
  18.1722        417
  18.1921        437
  18.2119        440
  18.2318        387
  18.2517        451
  18.2716        392
  18.2915        411
  18.3114        427
  18.3313        444
  18.3511        430
  18.3710        407
  18.3909        437
  18.4108        405
  18.4307        407
  18.4506        410
  18.4705        409
  18.4903        417
  18.5102        431
  18.5301        420
  18.5500        401
  18.5699        459
  18.5898        395
  18.6096        413
  18.6295        410
  18.6494        413
  18.6693        411
  18.6892        415
  18.7091        394
  18.7290        398
  18.7488        403
  18.7687        365
  18.7886        403
  18.8085        410
  18.8284        406
  18.8483        424
  18.8682        415
  18.8880        417
  18.9079        420
  18.9278        420
  18.9477        404
  18.9676        408
  18.9875        408
  19.0073        370
  19.0272        387
  19.0471        395
  19.0670        415
  19.0869        400
  19.1068        416
  19.1267        426
  19.1465        403
  19.1664        430
  19.1863        367
  19.2062        433
  19.2261        388
  19.2460        435
  19.2658        385
  19.2857        401
  19.3056        387
  19.3255        376
  19.3454        397
  19.3653        367
  19.3852        414
  19.4050        419
  19.4249        424
  19.4448        400
  19.4647        415
  19.4846        446
  19.5045        406
  19.5244        406
  19.5442        382
  19.5641        406
  19.5840        408
  19.6039        385
  19.6238        451
  19.6437        397
  19.6635        390
  19.6834        399
  19.7033        350
  19.7232        373
  19.7431        382
  19.7630        405
  19.7829        382
  19.8027        417
  19.8226        437
  19.8425        370
  19.8624        398
  19.8823        427
  19.9022        351
  19.9220        383
  19.9419        379
