; (content of file E:\SAIF User Data\2019\Adrine Correya RS,ISP,CUSAT\190711G\SAIFXR190711G-01(A).raw)
_FILEVERSION = 2
_SAMPLE = A
_+SAMPLE = 
_SITE = "Cochin Uni"
_USER = "Cochin Uni"
_GONIOMETER_CODE = 20
; Goniometer : D8 theta/2theta, stage : Unknown
_SAMPLE_CHANGER_CODE = 0
_ATTACHMENTS_CODE = 0
_GONIOMETER_RADIUS = 217.5
_FIXED_DIVSLIT = 0.15
_FIXED_SAMPLESLIT = 1
_SOLLER_SLITS = 2
_FIXED_DETSLIT = 1
_MONOCHROMATOR = 0
; Incident beam monochromator : None
_THIN_FILM = N
_BETA_FILTER = N
_FIXED_ANTISLIT = 0.15
_ANALYZER_CODE = 0
; Received beam analyzer : None
_DATEMEASURED = "15-Jul-2019 14:44:46"
_WL_UNIT = A
_WL1 = 1.5406
_WL2 = 1.54439
_WL3 = 1.39222
_WLRATIO = 0.5
_ANODE = Cu

; Data for range 1
_DRIVE = COUPLED
_STEPTIME = 59.67
_STEPSIZE = 0.0198849
_STEPMODE = C
_START = 3
_THETA = 1.5
_2THETA = 3
_KHI = 0
_PHI = 0
_X = 0
_Y = 0
_Z = 0
_DETECTOR = 5
; Detector type : Unknown
_DETECTORSLIT = out
_AUX1 = 0
_AUX2 = 0
_AUX3 = 0
_TIMESTARTED = 16
_TEMP_RATE = -1
_TEMP_DELAY = -1
_KV = 40
_MA = 40
_RANGE_WL = 1.5406
_3DPLANE = 0
_V4_COUNTERS_MASK = 4096
_V4_DRIVES_MASK = 0
_V4_ENCODERS_MASK = 0
_2THETACOUNTS = 1
; 2THETA  PSD
   3.0000       2315
   3.0199       2310
   3.0398       2324
   3.0597       2302
   3.0795       2197
   3.0994       2169
   3.1193       2163
   3.1392       2093
   3.1591       2114
   3.1790       2093
   3.1988       2019
   3.2187       2044
   3.2386       2153
   3.2585       1943
   3.2784       2097
   3.2983       1987
   3.3182       1978
   3.3380       1972
   3.3579       1922
   3.3778       1892
   3.3977       1884
   3.4176       1911
   3.4375       1865
   3.4574       1867
   3.4772       1786
   3.4971       1814
   3.5170       1813
   3.5369       1793
   3.5568       1812
   3.5767       1786
   3.5965       1718
   3.6164       1673
   3.6363       1745
   3.6562       1747
   3.6761       1698
   3.6960       1702
   3.7159       1675
   3.7357       1728
   3.7556       1656
   3.7755       1657
   3.7954       1617
   3.8153       1599
   3.8352       1628
   3.8551       1628
   3.8749       1608
   3.8948       1642
   3.9147       1551
   3.9346       1628
   3.9545       1527
   3.9744       1621
   3.9942       1550
   4.0141       1538
   4.0340       1478
   4.0539       1572
   4.0738       1507
   4.0937       1529
   4.1136       1511
   4.1334       1488
   4.1533       1579
   4.1732       1585
   4.1931       1480
   4.2130       1462
   4.2329       1517
   4.2527       1495
   4.2726       1466
   4.2925       1552
   4.3124       1479
   4.3323       1483
   4.3522       1486
   4.3721       1553
   4.3919       1521
   4.4118       1496
   4.4317       1503
   4.4516       1468
   4.4715       1406
   4.4914       1457
   4.5113       1495
   4.5311       1493
   4.5510       1416
   4.5709       1430
   4.5908       1351
   4.6107       1332
   4.6306       1469
   4.6504       1408
   4.6703       1410
   4.6902       1415
   4.7101       1357
   4.7300       1401
   4.7499       1433
   4.7698       1454
   4.7896       1343
   4.8095       1399
   4.8294       1438
   4.8493       1398
   4.8692       1385
   4.8891       1333
   4.9090       1442
   4.9288       1403
   4.9487       1363
   4.9686       1345
   4.9885       1361
   5.0084       1339
   5.0283       1392
   5.0481       1331
   5.0680       1383
   5.0879       1304
   5.1078       1293
   5.1277       1352
   5.1476       1292
   5.1675       1318
   5.1873       1281
   5.2072       1287
   5.2271       1329
   5.2470       1330
   5.2669       1374
   5.2868       1307
   5.3066       1283
   5.3265       1313
   5.3464       1240
   5.3663       1297
   5.3862       1284
   5.4061       1282
   5.4260       1350
   5.4458       1226
   5.4657       1299
   5.4856       1335
   5.5055       1283
   5.5254       1290
   5.5453       1285
   5.5652       1285
   5.5850       1223
   5.6049       1300
   5.6248       1286
   5.6447       1208
   5.6646       1241
   5.6845       1215
   5.7043       1241
   5.7242       1208
   5.7441       1234
   5.7640       1266
   5.7839       1236
   5.8038       1194
   5.8237       1165
   5.8435       1235
   5.8634       1261
   5.8833       1195
   5.9032       1170
   5.9231       1238
   5.9430       1202
   5.9629       1224
   5.9827       1245
   6.0026       1206
   6.0225       1176
   6.0424       1176
   6.0623       1170
   6.0822       1238
   6.1020       1266
   6.1219       1271
   6.1418       1260
   6.1617       1155
   6.1816       1109
   6.2015       1206
   6.2214       1165
   6.2412       1159
   6.2611       1220
   6.2810       1192
   6.3009       1145
   6.3208       1203
   6.3407       1156
   6.3605       1226
   6.3804       1199
   6.4003       1181
   6.4202       1256
   6.4401       1210
   6.4600       1190
   6.4799       1229
   6.4997       1186
   6.5196       1195
   6.5395       1177
   6.5594       1217
   6.5793       1320
   6.5992       1195
   6.6191       1245
   6.6389       1305
   6.6588       1307
   6.6787       1344
   6.6986       1338
   6.7185       1434
   6.7384       1430
   6.7582       1628
   6.7781       1463
   6.7980       1582
   6.8179       1529
   6.8378       1399
   6.8577       1320
   6.8776       1216
   6.8974       1301
   6.9173       1183
   6.9372       1158
   6.9571       1169
   6.9770       1180
   6.9969       1125
   7.0167       1104
   7.0366       1118
   7.0565       1118
   7.0764       1131
   7.0963       1140
   7.1162       1085
   7.1361       1145
   7.1559       1104
   7.1758       1160
   7.1957       1121
   7.2156       1026
   7.2355       1122
   7.2554       1057
   7.2753       1105
   7.2951       1067
   7.3150       1054
   7.3349       1068
   7.3548       1073
   7.3747       1050
   7.3946       1107
   7.4144       1020
   7.4343       1057
   7.4542       1063
   7.4741       1060
   7.4940       1041
   7.5139       1050
   7.5338       1061
   7.5536       1040
   7.5735       1055
   7.5934       1025
   7.6133       1040
   7.6332       1007
   7.6531       1087
   7.6730       1035
   7.6928       1059
   7.7127       1059
   7.7326       1096
   7.7525       1052
   7.7724       1029
   7.7923       1063
   7.8121       1033
   7.8320       1040
   7.8519        974
   7.8718       1031
   7.8917       1042
   7.9116        962
   7.9315        970
   7.9513       1042
   7.9712       1033
   7.9911       1072
   8.0110       1017
   8.0309       1069
   8.0508       1049
   8.0706       1008
   8.0905        999
   8.1104       1000
   8.1303        965
   8.1502       1030
   8.1701       1010
   8.1900       1004
   8.2098       1022
   8.2297        997
   8.2496       1047
   8.2695       1068
   8.2894        998
   8.3093       1106
   8.3292        975
   8.3490       1022
   8.3689        997
   8.3888        938
   8.4087       1062
   8.4286       1105
   8.4485       1115
   8.4683       1090
   8.4882       1156
   8.5081       1090
   8.5280       1111
   8.5479       1177
   8.5678       1142
   8.5877       1130
   8.6075       1149
   8.6274       1209
   8.6473       1219
   8.6672       1262
   8.6871       1207
   8.7070       1208
   8.7269       1213
   8.7467       1252
   8.7666       1242
   8.7865       1207
   8.8064       1189
   8.8263       1211
   8.8462       1166
   8.8660       1178
   8.8859       1223
   8.9058       1160
   8.9257       1151
   8.9456       1110
   8.9655       1144
   8.9854       1065
   9.0052       1105
   9.0251       1062
   9.0450       1098
   9.0649       1033
   9.0848       1066
   9.1047       1009
   9.1245       1019
   9.1444       1003
   9.1643        998
   9.1842       1052
   9.2041       1015
   9.2240        983
   9.2439        977
   9.2637        959
   9.2836        956
   9.3035        947
   9.3234        989
   9.3433        976
   9.3632        921
   9.3831        974
   9.4029        921
   9.4228        928
   9.4427        972
   9.4626        954
   9.4825        895
   9.5024        898
   9.5222        852
   9.5421        834
   9.5620        903
   9.5819        841
   9.6018        850
   9.6217        797
   9.6416        839
   9.6614        879
   9.6813        921
   9.7012        898
   9.7211        900
   9.7410        858
   9.7609        879
   9.7808        893
   9.8006        877
   9.8205        854
   9.8404        851
   9.8603        845
   9.8802        828
   9.9001        892
   9.9199        832
   9.9398        811
   9.9597        819
   9.9796        834
   9.9995        816
  10.0194        857
  10.0393        848
  10.0591        770
  10.0790        819
  10.0989        809
  10.1188        839
  10.1387        817
  10.1586        780
  10.1784        812
  10.1983        799
  10.2182        808
  10.2381        797
  10.2580        810
  10.2779        828
  10.2978        851
  10.3176        830
  10.3375        789
  10.3574        803
  10.3773        831
  10.3972        787
  10.4171        820
  10.4370        794
  10.4568        775
  10.4767        764
  10.4966        800
  10.5165        808
  10.5364        853
  10.5563        764
  10.5761        760
  10.5960        803
  10.6159        812
  10.6358        794
  10.6557        771
  10.6756        818
  10.6955        750
  10.7153        807
  10.7352        780
  10.7551        807
  10.7750        782
  10.7949        771
  10.8148        825
  10.8347        783
  10.8545        823
  10.8744        821
  10.8943        821
  10.9142        778
  10.9341        771
  10.9540        795
  10.9738        781
  10.9937        797
  11.0136        788
  11.0335        777
  11.0534        756
  11.0733        832
  11.0932        781
  11.1130        802
  11.1329        817
  11.1528        798
  11.1727        835
  11.1926        819
  11.2125        791
  11.2323        886
  11.2522        859
  11.2721        855
  11.2920        822
  11.3119        799
  11.3318        824
  11.3517        790
  11.3715        773
  11.3914        748
  11.4113        771
  11.4312        777
  11.4511        814
  11.4710        799
  11.4909        781
  11.5107        732
  11.5306        770
  11.5505        784
  11.5704        766
  11.5903        775
  11.6102        718
  11.6300        802
  11.6499        783
  11.6698        748
  11.6897        744
  11.7096        759
  11.7295        768
  11.7494        698
  11.7692        759
  11.7891        801
  11.8090        727
  11.8289        759
  11.8488        796
  11.8687        810
  11.8886        743
  11.9084        746
  11.9283        751
  11.9482        738
  11.9681        754
  11.9880        743
  12.0079        766
  12.0277        773
  12.0476        729
  12.0675        810
  12.0874        757
  12.1073        716
  12.1272        735
  12.1471        734
  12.1669        729
  12.1868        769
  12.2067        708
  12.2266        782
  12.2465        721
  12.2664        728
  12.2862        742
  12.3061        770
  12.3260        724
  12.3459        731
  12.3658        765
  12.3857        778
  12.4056        758
  12.4254        738
  12.4453        786
  12.4652        687
  12.4851        772
  12.5050        768
  12.5249        712
  12.5448        767
  12.5646        730
  12.5845        746
  12.6044        711
  12.6243        687
  12.6442        739
  12.6641        706
  12.6839        739
  12.7038        753
  12.7237        676
  12.7436        723
  12.7635        759
  12.7834        759
  12.8033        726
  12.8231        744
  12.8430        735
  12.8629        733
  12.8828        750
  12.9027        696
  12.9226        734
  12.9425        713
  12.9623        714
  12.9822        747
  13.0021        780
  13.0220        707
  13.0419        727
  13.0618        801
  13.0816        751
  13.1015        729
  13.1214        718
  13.1413        710
  13.1612        684
  13.1811        715
  13.2010        717
  13.2208        736
  13.2407        683
  13.2606        782
  13.2805        738
  13.3004        654
  13.3203        724
  13.3401        739
  13.3600        705
  13.3799        684
  13.3998        709
  13.4197        746
  13.4396        607
  13.4595        625
  13.4793        695
  13.4992        717
  13.5191        742
  13.5390        678
  13.5589        704
  13.5788        648
  13.5987        644
  13.6185        708
  13.6384        692
  13.6583        693
  13.6782        707
  13.6981        726
  13.7180        681
  13.7378        719
  13.7577        703
  13.7776        731
  13.7975        656
  13.8174        722
  13.8373        676
  13.8572        673
  13.8770        675
  13.8969        667
  13.9168        653
  13.9367        703
  13.9566        664
  13.9765        650
  13.9963        631
  14.0162        704
  14.0361        701
  14.0560        633
  14.0759        614
  14.0958        642
  14.1157        662
  14.1355        680
  14.1554        659
  14.1753        627
  14.1952        615
  14.2151        665
  14.2350        643
  14.2549        655
  14.2747        696
  14.2946        644
  14.3145        668
  14.3344        636
  14.3543        622
  14.3742        651
  14.3940        676
  14.4139        662
  14.4338        639
  14.4537        606
  14.4736        618
  14.4935        604
  14.5134        688
  14.5332        639
  14.5531        637
  14.5730        635
  14.5929        616
  14.6128        655
  14.6327        661
  14.6526        626
  14.6724        605
  14.6923        637
  14.7122        587
  14.7321        590
  14.7520        625
  14.7719        620
  14.7917        645
  14.8116        630
  14.8315        622
  14.8514        644
  14.8713        605
  14.8912        616
  14.9111        615
  14.9309        663
  14.9508        624
  14.9707        581
  14.9906        606
  15.0105        628
  15.0304        576
  15.0502        607
  15.0701        630
  15.0900        606
  15.1099        639
  15.1298        577
  15.1497        623
  15.1696        637
  15.1894        587
  15.2093        622
  15.2292        578
  15.2491        597
  15.2690        638
  15.2889        596
  15.3088        602
  15.3286        633
  15.3485        595
  15.3684        595
  15.3883        586
  15.4082        575
  15.4281        578
  15.4479        573
  15.4678        609
  15.4877        603
  15.5076        594
  15.5275        621
  15.5474        580
  15.5673        603
  15.5871        641
  15.6070        615
  15.6269        575
  15.6468        640
  15.6667        599
  15.6866        623
  15.7065        632
  15.7263        605
  15.7462        582
  15.7661        597
  15.7860        586
  15.8059        568
  15.8258        597
  15.8456        591
  15.8655        624
  15.8854        579
  15.9053        583
  15.9252        580
  15.9451        575
  15.9650        603
  15.9848        606
  16.0047        614
  16.0246        574
  16.0445        614
  16.0644        579
  16.0843        614
  16.1041        578
  16.1240        576
  16.1439        585
  16.1638        597
  16.1837        602
  16.2036        603
  16.2235        622
  16.2433        595
  16.2632        617
  16.2831        642
  16.3030        589
  16.3229        601
  16.3428        575
  16.3627        603
  16.3825        607
  16.4024        579
  16.4223        607
  16.4422        561
  16.4621        564
  16.4820        601
  16.5018        570
  16.5217        549
  16.5416        564
  16.5615        578
  16.5814        598
  16.6013        562
  16.6212        590
  16.6410        566
  16.6609        581
  16.6808        562
  16.7007        579
  16.7206        570
  16.7405        601
  16.7604        562
  16.7802        567
  16.8001        585
  16.8200        575
  16.8399        588
  16.8598        562
  16.8797        569
  16.8995        564
  16.9194        595
  16.9393        589
  16.9592        572
  16.9791        591
  16.9990        551
  17.0189        562
  17.0387        554
  17.0586        565
  17.0785        553
  17.0984        561
  17.1183        598
  17.1382        543
  17.1580        556
  17.1779        590
  17.1978        619
  17.2177        545
  17.2376        578
  17.2575        544
  17.2774        579
  17.2972        499
  17.3171        610
  17.3370        548
  17.3569        551
  17.3768        549
  17.3967        550
  17.4166        638
  17.4364        603
  17.4563        623
  17.4762        614
  17.4961        605
  17.5160        609
  17.5359        611
  17.5557        562
  17.5756        559
  17.5955        541
  17.6154        595
  17.6353        557
  17.6552        579
  17.6751        574
  17.6949        572
  17.7148        582
  17.7347        609
  17.7546        582
  17.7745        577
  17.7944        604
  17.8143        531
  17.8341        525
  17.8540        558
  17.8739        563
  17.8938        547
  17.9137        555
  17.9336        567
  17.9534        563
  17.9733        540
  17.9932        572
  18.0131        521
  18.0330        569
  18.0529        578
  18.0728        563
  18.0926        557
  18.1125        563
  18.1324        563
  18.1523        547
  18.1722        618
  18.1921        566
  18.2119        559
  18.2318        570
  18.2517        534
  18.2716        494
  18.2915        593
  18.3114        561
  18.3313        565
  18.3511        572
  18.3710        555
  18.3909        526
  18.4108        559
  18.4307        580
  18.4506        563
  18.4705        586
  18.4903        600
  18.5102        566
  18.5301        552
  18.5500        473
  18.5699        566
  18.5898        552
  18.6096        571
  18.6295        535
  18.6494        521
  18.6693        536
  18.6892        543
  18.7091        498
  18.7290        529
  18.7488        542
  18.7687        521
  18.7886        516
  18.8085        549
  18.8284        550
  18.8483        528
  18.8682        536
  18.8880        528
  18.9079        536
  18.9278        533
  18.9477        513
  18.9676        533
  18.9875        562
  19.0073        522
  19.0272        572
  19.0471        533
  19.0670        530
  19.0869        553
  19.1068        530
  19.1267        546
  19.1465        540
  19.1664        574
  19.1863        566
  19.2062        534
  19.2261        529
  19.2460        518
  19.2658        538
  19.2857        512
  19.3056        534
  19.3255        544
  19.3454        500
  19.3653        541
  19.3852        528
  19.4050        562
  19.4249        545
  19.4448        522
  19.4647        542
  19.4846        571
  19.5045        577
  19.5244        555
  19.5442        513
  19.5641        500
  19.5840        566
  19.6039        523
  19.6238        544
  19.6437        535
  19.6635        561
  19.6834        519
  19.7033        534
  19.7232        539
  19.7431        573
  19.7630        523
  19.7829        501
  19.8027        562
  19.8226        522
  19.8425        507
  19.8624        530
  19.8823        528
  19.9022        515
  19.9220        516
  19.9419        454
