; (content of file E:\SAIF User Data\2019\Adrine Correya RS,ISP,CUSAT\190711G\SAIFXR190711G-02(B).raw)
_FILEVERSION = 2
_SAMPLE = B
_+SAMPLE = 
_SITE = "Cochin Uni"
_USER = "Cochin Uni"
_GONIOMETER_CODE = 20
; Goniometer : D8 theta/2theta, stage : Unknown
_SAMPLE_CHANGER_CODE = 0
_ATTACHMENTS_CODE = 0
_GONIOMETER_RADIUS = 217.5
_FIXED_DIVSLIT = 0.15
_FIXED_SAMPLESLIT = 1
_SOLLER_SLITS = 2
_FIXED_DETSLIT = 1
_MONOCHROMATOR = 0
; Incident beam monochromator : None
_THIN_FILM = N
_BETA_FILTER = N
_FIXED_ANTISLIT = 0.15
_ANALYZER_CODE = 0
; Received beam analyzer : None
_DATEMEASURED = "15-Jul-2019 15:21:48"
_WL_UNIT = A
_WL1 = 1.5406
_WL2 = 1.54439
_WL3 = 1.39222
_WLRATIO = 0.5
_ANODE = Cu

; Data for range 1
_DRIVE = COUPLED
_STEPTIME = 59.67
_STEPSIZE = 0.0198849
_STEPMODE = C
_START = 3
_THETA = 1.5
_2THETA = 3
_KHI = 0
_PHI = 0
_X = 0
_Y = 0
_Z = 0
_DETECTOR = 5
; Detector type : Unknown
_DETECTORSLIT = out
_AUX1 = 0
_AUX2 = 0
_AUX3 = 0
_TIMESTARTED = 11
_TEMP_RATE = -1
_TEMP_DELAY = -1
_KV = 40
_MA = 40
_RANGE_WL = 1.5406
_3DPLANE = 0
_V4_COUNTERS_MASK = 4096
_V4_DRIVES_MASK = 0
_V4_ENCODERS_MASK = 0
_2THETACOUNTS = 1
; 2THETA  PSD
   3.0000       2307
   3.0199       2313
   3.0398       2261
   3.0597       2227
   3.0795       2229
   3.0994       2255
   3.1193       2182
   3.1392       2163
   3.1591       2136
   3.1790       2115
   3.1988       2110
   3.2187       2048
   3.2386       2109
   3.2585       2008
   3.2784       1949
   3.2983       2007
   3.3182       1956
   3.3380       1912
   3.3579       1950
   3.3778       1849
   3.3977       1930
   3.4176       1852
   3.4375       1769
   3.4574       1883
   3.4772       1791
   3.4971       1771
   3.5170       1777
   3.5369       1847
   3.5568       1824
   3.5767       1748
   3.5965       1782
   3.6164       1790
   3.6363       1757
   3.6562       1741
   3.6761       1683
   3.6960       1676
   3.7159       1691
   3.7357       1656
   3.7556       1713
   3.7755       1640
   3.7954       1635
   3.8153       1615
   3.8352       1676
   3.8551       1684
   3.8749       1670
   3.8948       1634
   3.9147       1669
   3.9346       1666
   3.9545       1586
   3.9744       1558
   3.9942       1686
   4.0141       1583
   4.0340       1546
   4.0539       1608
   4.0738       1552
   4.0937       1659
   4.1136       1632
   4.1334       1531
   4.1533       1531
   4.1732       1609
   4.1931       1522
   4.2130       1535
   4.2329       1513
   4.2527       1555
   4.2726       1622
   4.2925       1515
   4.3124       1568
   4.3323       1489
   4.3522       1512
   4.3721       1512
   4.3919       1528
   4.4118       1447
   4.4317       1463
   4.4516       1521
   4.4715       1450
   4.4914       1496
   4.5113       1477
   4.5311       1488
   4.5510       1566
   4.5709       1459
   4.5908       1420
   4.6107       1520
   4.6306       1471
   4.6504       1393
   4.6703       1457
   4.6902       1435
   4.7101       1455
   4.7300       1467
   4.7499       1411
   4.7698       1475
   4.7896       1464
   4.8095       1488
   4.8294       1406
   4.8493       1379
   4.8692       1438
   4.8891       1456
   4.9090       1468
   4.9288       1422
   4.9487       1371
   4.9686       1389
   4.9885       1370
   5.0084       1455
   5.0283       1356
   5.0481       1366
   5.0680       1411
   5.0879       1369
   5.1078       1502
   5.1277       1415
   5.1476       1403
   5.1675       1380
   5.1873       1331
   5.2072       1415
   5.2271       1369
   5.2470       1353
   5.2669       1366
   5.2868       1331
   5.3066       1347
   5.3265       1332
   5.3464       1320
   5.3663       1290
   5.3862       1322
   5.4061       1357
   5.4260       1287
   5.4458       1301
   5.4657       1328
   5.4856       1253
   5.5055       1277
   5.5254       1279
   5.5453       1290
   5.5652       1276
   5.5850       1257
   5.6049       1268
   5.6248       1258
   5.6447       1213
   5.6646       1246
   5.6845       1267
   5.7043       1241
   5.7242       1202
   5.7441       1266
   5.7640       1271
   5.7839       1252
   5.8038       1251
   5.8237       1189
   5.8435       1265
   5.8634       1222
   5.8833       1230
   5.9032       1264
   5.9231       1220
   5.9430       1194
   5.9629       1204
   5.9827       1207
   6.0026       1155
   6.0225       1191
   6.0424       1185
   6.0623       1189
   6.0822       1205
   6.1020       1220
   6.1219       1141
   6.1418       1184
   6.1617       1156
   6.1816       1201
   6.2015       1135
   6.2214       1155
   6.2412       1099
   6.2611       1136
   6.2810       1142
   6.3009       1120
   6.3208       1143
   6.3407       1228
   6.3605       1177
   6.3804       1146
   6.4003       1093
   6.4202       1134
   6.4401       1165
   6.4600       1143
   6.4799       1143
   6.4997       1109
   6.5196       1134
   6.5395       1081
   6.5594       1114
   6.5793       1098
   6.5992       1110
   6.6191       1135
   6.6389       1146
   6.6588       1104
   6.6787       1081
   6.6986       1069
   6.7185       1081
   6.7384       1078
   6.7582        990
   6.7781       1053
   6.7980       1073
   6.8179       1088
   6.8378       1062
   6.8577       1075
   6.8776       1087
   6.8974       1070
   6.9173       1031
   6.9372       1034
   6.9571       1032
   6.9770       1079
   6.9969       1085
   7.0167       1057
   7.0366       1009
   7.0565       1073
   7.0764       1015
   7.0963       1024
   7.1162       1046
   7.1361       1051
   7.1559       1013
   7.1758       1067
   7.1957       1046
   7.2156       1037
   7.2355       1006
   7.2554       1046
   7.2753       1052
   7.2951       1012
   7.3150        988
   7.3349       1059
   7.3548        969
   7.3747        998
   7.3946        983
   7.4144        991
   7.4343        996
   7.4542       1018
   7.4741        965
   7.4940       1034
   7.5139       1034
   7.5338       1011
   7.5536        984
   7.5735        969
   7.5934        999
   7.6133        981
   7.6332        991
   7.6531        981
   7.6730       1000
   7.6928       1000
   7.7127        966
   7.7326        996
   7.7525        987
   7.7724        936
   7.7923        980
   7.8121        990
   7.8320        930
   7.8519        942
   7.8718        877
   7.8917        935
   7.9116        940
   7.9315        961
   7.9513        887
   7.9712        918
   7.9911        960
   8.0110       1016
   8.0309        910
   8.0508        895
   8.0706       1028
   8.0905        890
   8.1104        934
   8.1303        880
   8.1502        921
   8.1701        889
   8.1900        958
   8.2098        917
   8.2297        858
   8.2496        859
   8.2695        934
   8.2894        909
   8.3093        893
   8.3292        924
   8.3490        913
   8.3689        951
   8.3888        918
   8.4087        877
   8.4286        894
   8.4485        927
   8.4683        842
   8.4882        900
   8.5081        906
   8.5280        880
   8.5479        906
   8.5678        872
   8.5877        888
   8.6075        850
   8.6274        851
   8.6473        857
   8.6672        830
   8.6871        902
   8.7070        905
   8.7269        862
   8.7467        879
   8.7666        868
   8.7865        889
   8.8064        874
   8.8263        836
   8.8462        838
   8.8660        842
   8.8859        818
   8.9058        840
   8.9257        815
   8.9456        845
   8.9655        855
   8.9854        872
   9.0052        814
   9.0251        843
   9.0450        781
   9.0649        810
   9.0848        888
   9.1047        822
   9.1245        822
   9.1444        834
   9.1643        814
   9.1842        835
   9.2041        813
   9.2240        804
   9.2439        794
   9.2637        829
   9.2836        806
   9.3035        829
   9.3234        788
   9.3433        721
   9.3632        831
   9.3831        829
   9.4029        770
   9.4228        836
   9.4427        871
   9.4626        801
   9.4825        770
   9.5024        768
   9.5222        819
   9.5421        762
   9.5620        804
   9.5819        807
   9.6018        814
   9.6217        782
   9.6416        820
   9.6614        792
   9.6813        778
   9.7012        819
   9.7211        776
   9.7410        745
   9.7609        781
   9.7808        818
   9.8006        775
   9.8205        803
   9.8404        798
   9.8603        759
   9.8802        824
   9.9001        798
   9.9199        744
   9.9398        756
   9.9597        812
   9.9796        766
   9.9995        811
  10.0194        815
  10.0393        789
  10.0591        752
  10.0790        746
  10.0989        793
  10.1188        756
  10.1387        763
  10.1586        842
  10.1784        709
  10.1983        801
  10.2182        813
  10.2381        764
  10.2580        786
  10.2779        769
  10.2978        684
  10.3176        724
  10.3375        738
  10.3574        846
  10.3773        783
  10.3972        790
  10.4171        755
  10.4370        848
  10.4568        828
  10.4767        782
  10.4966        805
  10.5165        824
  10.5364        838
  10.5563        950
  10.5761       1000
  10.5960       1025
  10.6159       1120
  10.6358       1079
  10.6557       1025
  10.6756        970
  10.6955        947
  10.7153        819
  10.7352        866
  10.7551        825
  10.7750        794
  10.7949        792
  10.8148        785
  10.8347        788
  10.8545        769
  10.8744        785
  10.8943        784
  10.9142        770
  10.9341        734
  10.9540        720
  10.9738        776
  10.9937        766
  11.0136        745
  11.0335        757
  11.0534        768
  11.0733        790
  11.0932        747
  11.1130        778
  11.1329        767
  11.1528        714
  11.1727        749
  11.1926        739
  11.2125        762
  11.2323        774
  11.2522        750
  11.2721        732
  11.2920        716
  11.3119        779
  11.3318        784
  11.3517        743
  11.3715        759
  11.3914        736
  11.4113        699
  11.4312        757
  11.4511        739
  11.4710        715
  11.4909        746
  11.5107        729
  11.5306        755
  11.5505        798
  11.5704        776
  11.5903        748
  11.6102        779
  11.6300        757
  11.6499        812
  11.6698        797
  11.6897        804
  11.7096        807
  11.7295        749
  11.7494        794
  11.7692        744
  11.7891        784
  11.8090        761
  11.8289        768
  11.8488        780
  11.8687        750
  11.8886        762
  11.9084        766
  11.9283        780
  11.9482        768
  11.9681        810
  11.9880        818
  12.0079        761
  12.0277        772
  12.0476        773
  12.0675        768
  12.0874        758
  12.1073        770
  12.1272        817
  12.1471        791
  12.1669        760
  12.1868        781
  12.2067        781
  12.2266        798
  12.2465        795
  12.2664        823
  12.2862        816
  12.3061        794
  12.3260        795
  12.3459        819
  12.3658        776
  12.3857        820
  12.4056        795
  12.4254        824
  12.4453        814
  12.4652        846
  12.4851        853
  12.5050        891
  12.5249        842
  12.5448        856
  12.5646        894
  12.5845        834
  12.6044        838
  12.6243        853
  12.6442        851
  12.6641        857
  12.6839        861
  12.7038        853
  12.7237        880
  12.7436        833
  12.7635        861
  12.7834        879
  12.8033        862
  12.8231        847
  12.8430        818
  12.8629        817
  12.8828        789
  12.9027        783
  12.9226        795
  12.9425        808
  12.9623        778
  12.9822        779
  13.0021        798
  13.0220        755
  13.0419        749
  13.0618        719
  13.0816        673
  13.1015        747
  13.1214        721
  13.1413        724
  13.1612        705
  13.1811        709
  13.2010        691
  13.2208        680
  13.2407        658
  13.2606        710
  13.2805        700
  13.3004        657
  13.3203        664
  13.3401        699
  13.3600        648
  13.3799        627
  13.3998        647
  13.4197        677
  13.4396        657
  13.4595        644
  13.4793        644
  13.4992        664
  13.5191        587
  13.5390        680
  13.5589        632
  13.5788        655
  13.5987        644
  13.6185        608
  13.6384        656
  13.6583        613
  13.6782        615
  13.6981        644
  13.7180        622
  13.7378        625
  13.7577        615
  13.7776        628
  13.7975        611
  13.8174        636
  13.8373        586
  13.8572        586
  13.8770        613
  13.8969        640
  13.9168        641
  13.9367        638
  13.9566        623
  13.9765        649
  13.9963        600
  14.0162        624
  14.0361        573
  14.0560        637
  14.0759        586
  14.0958        570
  14.1157        623
  14.1355        623
  14.1554        639
  14.1753        596
  14.1952        581
  14.2151        546
  14.2350        557
  14.2549        589
  14.2747        601
  14.2946        577
  14.3145        580
  14.3344        617
  14.3543        627
  14.3742        643
  14.3940        621
  14.4139        641
  14.4338        567
  14.4537        626
  14.4736        672
  14.4935        617
  14.5134        580
  14.5332        610
  14.5531        637
  14.5730        689
  14.5929        611
  14.6128        686
  14.6327        687
  14.6526        696
  14.6724        712
  14.6923        654
  14.7122        667
  14.7321        655
  14.7520        601
  14.7719        661
  14.7917        606
  14.8116        587
  14.8315        600
  14.8514        587
  14.8713        565
  14.8912        497
  14.9111        563
  14.9309        605
  14.9508        581
  14.9707        586
  14.9906        567
  15.0105        547
  15.0304        578
  15.0502        568
  15.0701        599
  15.0900        560
  15.1099        572
  15.1298        577
  15.1497        578
  15.1696        583
  15.1894        561
  15.2093        623
  15.2292        571
  15.2491        539
  15.2690        515
  15.2889        593
  15.3088        513
  15.3286        532
  15.3485        556
  15.3684        591
  15.3883        578
  15.4082        542
  15.4281        505
  15.4479        581
  15.4678        547
  15.4877        558
  15.5076        550
  15.5275        532
  15.5474        573
  15.5673        580
  15.5871        499
  15.6070        548
  15.6269        572
  15.6468        504
  15.6667        563
  15.6866        551
  15.7065        541
  15.7263        557
  15.7462        569
  15.7661        542
  15.7860        582
  15.8059        569
  15.8258        571
  15.8456        613
  15.8655        603
  15.8854        642
  15.9053        568
  15.9252        652
  15.9451        740
  15.9650        857
  15.9848       1038
  16.0047       1187
  16.0246       1473
  16.0445       1513
  16.0644       1497
  16.0843       1260
  16.1041       1022
  16.1240        837
  16.1439        718
  16.1638        668
  16.1837        664
  16.2036        598
  16.2235        601
  16.2433        564
  16.2632        558
  16.2831        607
  16.3030        594
  16.3229        520
  16.3428        537
  16.3627        584
  16.3825        589
  16.4024        524
  16.4223        536
  16.4422        530
  16.4621        534
  16.4820        529
  16.5018        521
  16.5217        521
  16.5416        525
  16.5615        515
  16.5814        540
  16.6013        534
  16.6212        542
  16.6410        538
  16.6609        547
  16.6808        564
  16.7007        503
  16.7206        475
  16.7405        530
  16.7604        538
  16.7802        547
  16.8001        529
  16.8200        529
  16.8399        493
  16.8598        506
  16.8797        477
  16.8995        508
  16.9194        503
  16.9393        521
  16.9592        471
  16.9791        541
  16.9990        483
  17.0189        490
  17.0387        474
  17.0586        464
  17.0785        496
  17.0984        487
  17.1183        516
  17.1382        505
  17.1580        492
  17.1779        488
  17.1978        486
  17.2177        524
  17.2376        522
  17.2575        488
  17.2774        502
  17.2972        516
  17.3171        519
  17.3370        479
  17.3569        523
  17.3768        501
  17.3967        510
  17.4166        429
  17.4364        498
  17.4563        485
  17.4762        470
  17.4961        471
  17.5160        505
  17.5359        460
  17.5557        462
  17.5756        505
  17.5955        476
  17.6154        470
  17.6353        482
  17.6552        484
  17.6751        488
  17.6949        461
  17.7148        430
  17.7347        487
  17.7546        497
  17.7745        456
  17.7944        466
  17.8143        466
  17.8341        465
  17.8540        464
  17.8739        482
  17.8938        471
  17.9137        475
  17.9336        450
  17.9534        450
  17.9733        432
  17.9932        431
  18.0131        499
  18.0330        478
  18.0529        435
  18.0728        447
  18.0926        455
  18.1125        481
  18.1324        435
  18.1523        446
  18.1722        483
  18.1921        482
  18.2119        471
  18.2318        428
  18.2517        444
  18.2716        434
  18.2915        469
  18.3114        500
  18.3313        463
  18.3511        493
  18.3710        454
  18.3909        454
  18.4108        449
  18.4307        423
  18.4506        465
  18.4705        481
  18.4903        446
  18.5102        445
  18.5301        471
  18.5500        418
  18.5699        457
  18.5898        474
  18.6096        433
  18.6295        474
  18.6494        476
  18.6693        452
  18.6892        451
  18.7091        432
  18.7290        471
  18.7488        448
  18.7687        420
  18.7886        457
  18.8085        444
  18.8284        470
  18.8483        472
  18.8682        446
  18.8880        434
  18.9079        443
  18.9278        448
  18.9477        461
  18.9676        427
  18.9875        425
  19.0073        465
  19.0272        434
  19.0471        436
  19.0670        435
  19.0869        431
  19.1068        425
  19.1267        429
  19.1465        461
  19.1664        437
  19.1863        452
  19.2062        489
  19.2261        459
  19.2460        460
  19.2658        459
  19.2857        468
  19.3056        396
  19.3255        472
  19.3454        412
  19.3653        405
  19.3852        433
  19.4050        460
  19.4249        474
  19.4448        468
  19.4647        480
  19.4846        486
  19.5045        488
  19.5244        479
  19.5442        503
  19.5641        473
  19.5840        470
  19.6039        452
  19.6238        428
  19.6437        407
  19.6635        463
  19.6834        433
  19.7033        434
  19.7232        407
  19.7431        433
  19.7630        433
  19.7829        436
  19.8027        443
  19.8226        436
  19.8425        448
  19.8624        448
  19.8823        411
  19.9022        400
  19.9220        420
  19.9419        419
